loadapp_2024_03_18_12_53_16_589.loadflux
comment new app 11 sec og walk
	P1V477-L		P1V450-R		
Time[secs]	Force[N]	Time[secs]	Force[N]	
0.000	25.000	0.000	877.500		
0.005	25.000	0.005	873.990		
0.010	17.500	0.010	873.990		
0.015	15.000	0.015	859.950		
0.020	15.000	0.020	856.440		
0.025	12.500	0.025	849.420		
0.030	10.000	0.030	845.910		
0.035	7.500	0.035	849.420		
0.040	5.000	0.040	842.400		
0.045	5.000	0.045	838.890		
0.050	2.500	0.050	831.870		
0.055	7.500	0.055	835.380		
0.060	7.500	0.060	831.870		
0.065	2.500	0.065	831.870		
0.070	7.500	0.070	824.850		
0.075	4.980	0.075	827.640		
0.080	2.490	0.080	827.640		
0.085	2.490	0.085	827.640		
0.090	2.490	0.090	824.220		
0.095	4.980	0.095	827.640		
0.100	0.000	0.100	834.480		
0.105	0.000	0.105	831.060		
0.110	2.490	0.110	834.480		
0.115	0.000	0.115	831.060		
0.120	2.490	0.120	834.480		
0.125	0.000	0.125	841.320		
0.130	0.000	0.130	844.740		
0.135	2.490	0.135	844.740		
0.140	0.000	0.140	851.580		
0.145	7.500	0.145	855.000		
0.150	7.480	0.150	856.680		
0.155	7.480	0.155	856.680		
0.160	2.380	0.160	856.680		
0.165	2.380	0.165	860.220		
0.170	4.930	0.170	863.760		
0.180	4.930	0.175	863.760		
0.180	4.930	0.180	867.300		
0.185	7.480	0.185	870.840		
0.190	7.480	0.195	874.380		
0.195	0.000	0.195	874.380		
0.200	4.930	0.200	881.460		
0.205	4.930	0.205	874.380		
0.210	7.480	0.210	877.920		
0.215	19.890	0.215	881.460		
0.220	29.920	0.220	877.920		
0.225	42.500	0.225	885.000		
0.230	76.440	0.230	877.920		
0.235	119.560	0.235	885.000		
0.240	166.600	0.240	877.920		
0.245	211.680	0.245	877.920		
0.250	239.120	0.250	874.380		
0.255	248.920	0.255	877.920		
0.260	256.760	0.260	874.380		
0.265	274.400	0.265	870.840		
0.270	295.960	0.270	867.300		
0.275	329.280	0.275	849.600		
0.280	364.560	0.280	838.980		
0.285	399.840	0.285	824.820		
0.290	427.280	0.290	800.040		
0.295	456.680	0.295	782.340		
0.300	490.000	0.300	761.100		
0.305	524.700	0.305	745.000		
0.310	554.400	0.310	727.120		
0.315	590.700	0.315	712.220		
0.320	620.400	0.320	697.320		
0.325	646.800	0.325	688.380		
0.330	679.800	0.330	679.440		
0.335	699.600	0.335	664.540		
0.340	719.400	0.340	649.640		
0.345	742.500	0.345	634.740		
0.350	755.700	0.350	622.820		
0.355	768.900	0.355	604.940		
0.365	792.000	0.360	575.140		
0.365	792.000	0.365	548.320		
0.370	801.900	0.370	521.500		
0.375	818.400	0.375	491.700		
0.380	825.000	0.380	460.000		
0.385	839.360	0.385	423.200		
0.390	839.360	0.395	393.760		
0.395	846.240	0.395	393.760		
0.400	860.000	0.400	356.960		
0.405	853.120	0.405	314.640		
0.410	856.560	0.410	252.080		
0.415	856.560	0.415	206.080		
0.420	853.120	0.420	169.280		
0.425	853.120	0.425	143.520		
0.430	849.680	0.430	115.920		
0.435	842.800	0.435	101.200		
0.440	835.920	0.440	84.640		
0.445	825.600	0.445	77.280		
0.450	822.160	0.450	64.400		
0.455	808.400	0.455	51.520		
0.460	805.000	0.460	47.500		
0.465	795.340	0.465	42.370		
0.470	779.240	0.470	42.370		
0.475	769.580	0.475	34.960		
0.480	766.360	0.480	34.960		
0.485	756.700	0.485	34.960		
0.490	740.600	0.490	34.960		
0.495	737.380	0.495	32.490		
0.500	724.500	0.500	27.360		
0.505	711.620	0.505	27.360		
0.510	708.400	0.510	19.950		
0.515	698.740	0.515	17.480		
0.520	695.520	0.520	22.420		
0.525	682.640	0.525	9.880		
0.530	669.760	0.530	7.410		
0.535	666.660	0.535	5.000		
0.545	663.950	0.540	10.000		
0.545	663.950	0.545	2.480		
0.550	655.820	0.550	5.000		
0.555	650.400	0.555	5.000		
0.560	650.400	0.560	5.000		
0.565	647.690	0.565	7.480		
0.570	644.980	0.570	2.480		
0.575	644.980	0.575	2.480		
0.580	647.690	0.580	2.480		
0.585	647.690	0.590	0.000		
0.590	653.110	0.590	0.000		
0.595	655.820	0.595	0.000		
0.600	655.820	0.600	2.480		
0.605	669.370	0.605	0.000		
0.610	677.500	0.610	2.480		
0.615	684.600	0.615	0.000		
0.620	687.860	0.620	0.000		
0.625	697.640	0.625	0.000		
0.630	707.420	0.630	2.500		
0.635	717.200	0.635	0.000		
0.640	726.980	0.640	2.500		
0.645	736.760	0.645	0.000		
0.650	749.800	0.650	0.000		
0.655	759.580	0.655	0.000		
0.660	769.360	0.660	0.000		
0.665	782.400	0.665	2.500		
0.670	788.920	0.670	0.000		
0.675	795.440	0.675	0.000		
0.680	805.220	0.680	0.000		
0.685	815.000	0.685	2.500		
0.690	819.400	0.690	2.490		
0.695	829.600	0.695	0.000		
0.700	829.600	0.700	4.980		
0.705	839.800	0.705	2.490		
0.710	839.800	0.710	2.490		
0.715	839.800	0.715	0.000		
0.720	850.000	0.720	7.500		
0.730	839.800	0.725	4.980		
0.730	839.800	0.730	2.490		
0.735	846.600	0.735	0.000		
0.740	843.200	0.740	7.500		
0.745	846.600	0.745	0.000		
0.750	836.400	0.750	0.000		
0.755	836.400	0.755	2.490		
0.760	839.800	0.760	2.490		
0.765	836.400	0.765	8.080		
0.770	837.500	0.770	26.260		
0.775	830.800	0.775	26.260		
0.780	830.800	0.780	34.340		
0.785	827.450	0.790	60.600		
0.790	807.350	0.790	60.600		
0.795	807.350	0.795	123.220		
0.800	793.950	0.800	204.020		
0.805	783.900	0.805	284.820		
0.810	760.450	0.810	341.380		
0.815	743.700	0.815	373.700		
0.820	720.250	0.820	393.900		
0.825	676.700	0.825	414.100		
0.830	636.500	0.830	436.320		
0.835	572.850	0.835	468.640		
0.840	519.250	0.840	505.000		
0.845	462.500	0.845	548.800		
0.850	399.600	0.850	591.920		
0.855	334.850	0.855	631.120		
0.860	273.800	0.860	666.400		
0.865	222.000	0.865	701.680		
0.870	175.750	0.870	736.960		
0.875	142.450	0.875	776.160		
0.880	123.950	0.880	811.440		
0.885	103.600	0.885	834.960		
0.890	94.350	0.890	866.320		
0.895	79.550	0.895	893.760		
0.900	61.050	0.900	917.280		
0.910	46.250	0.905	944.720		
0.910	46.250	0.910	964.320		
0.915	40.700	0.915	980.000		
0.920	33.300	0.920	996.300		
0.925	30.000	0.925	1008.600		
0.930	19.920	0.930	1016.800		
0.935	12.480	0.935	1016.800		
0.940	15.000	0.940	1020.900		
0.945	9.960	0.945	1025.000		
0.950	7.440	0.950	1025.000		
0.955	7.440	0.955	1025.000		
0.960	4.920	0.960	1020.900		
0.965	0.000	0.965	1016.800		
0.970	0.000	0.970	1004.500		
0.975	0.000	0.975	992.200		
0.980	2.400	0.985	975.800		
0.985	2.400	0.985	975.800		
0.990	0.000	0.990	967.600		
0.995	0.000	0.995	951.200		
1.000	0.000	1.000	940.000		
1.005	0.000	1.005	924.960		
1.010	0.000	1.010	902.400		
1.015	0.000	1.015	879.840		
1.020	0.000	1.020	864.800		
1.025	0.000	1.025	857.280		
1.030	0.000	1.030	834.720		
1.035	2.500	1.035	819.680		
1.040	2.500	1.040	804.640		
1.045	2.500	1.045	785.840		
1.050	0.000	1.050	774.560		
1.055	2.500	1.055	763.280		
1.060	0.000	1.060	748.240		
1.065	0.000	1.065	736.960		
1.070	0.000	1.070	729.440		
1.075	0.000	1.075	720.000		
1.080	0.000	1.080	711.360		
1.085	0.000	1.085	702.720		
1.095	0.000	1.090	699.840		
1.095	0.000	1.095	694.080		
1.100	2.500	1.100	691.200		
1.105	2.500	1.105	688.320		
1.110	0.000	1.110	691.200		
1.115	2.500	1.115	694.080		
1.120	0.000	1.120	691.200		
1.125	0.000	1.125	696.960		
1.130	5.000	1.130	699.840		
1.135	2.500	1.135	699.840		
1.140	5.000	1.140	702.720		
1.145	0.000	1.145	717.120		
1.150	5.000	1.150	725.610		
1.155	2.460	1.155	729.220		
1.160	2.460	1.160	743.660		
1.165	2.460	1.165	750.880		
1.170	0.000	1.170	765.320		
1.175	4.980	1.175	779.760		
1.180	7.500	1.185	794.200		
1.185	2.460	1.185	794.200		
1.190	4.980	1.190	805.030		
1.195	4.980	1.195	819.470		
1.200	4.980	1.200	833.910		
1.205	7.500	1.205	844.740		
1.210	4.980	1.210	859.180		
1.215	7.500	1.215	877.230		
1.220	9.960	1.220	888.060		
1.225	15.000	1.225	902.500		
1.230	16.400	1.230	912.450		
1.235	26.650	1.235	924.300		
1.240	41.000	1.240	936.150		
1.245	49.200	1.245	948.000		
1.250	73.800	1.250	951.950		
1.255	127.100	1.255	959.850		
1.260	233.700	1.260	967.750		
1.265	364.900	1.265	979.600		
1.275	428.450	1.270	979.600		
1.275	428.450	1.275	979.600		
1.280	461.250	1.280	987.500		
1.285	471.500	1.285	983.550		
1.290	471.500	1.290	971.700		
1.295	469.450	1.295	971.700		
1.300	483.800	1.300	971.700		
1.305	512.500	1.305	967.500		
1.310	537.200	1.310	952.020		
1.315	564.850	1.315	936.540		
1.320	596.450	1.320	917.190		
1.325	632.000	1.325	893.970		
1.330	683.350	1.330	866.880		
1.335	726.800	1.335	828.180		
1.340	778.150	1.340	789.480		
1.345	813.700	1.345	731.430		
1.350	845.300	1.350	673.380		
1.355	884.800	1.355	607.590		
1.360	904.550	1.360	549.540		
1.365	932.200	1.365	483.750		
1.370	955.900	1.370	402.480		
1.375	971.700	1.380	336.690		
1.380	987.500	1.380	336.690		
1.385	990.470	1.385	270.000		
1.390	1002.500	1.390	214.920		
1.395	998.490	1.395	171.720		
1.400	998.490	1.400	135.000		
1.405	994.480	1.405	106.920		
1.410	994.480	1.410	82.080		
1.415	974.430	1.415	66.960		
1.420	958.390	1.420	49.680		
1.425	938.340	1.425	42.120		
1.430	914.280	1.430	32.400		
1.435	902.250	1.435	27.000		
1.440	886.210	1.440	27.000		
1.445	866.160	1.445	21.600		
1.450	854.130	1.450	11.880		
1.460	842.100	1.455	9.720		
1.460	842.100	1.460	2.500		
1.465	827.500	1.465	0.000		
1.470	814.260	1.470	0.000		
1.475	804.330	1.475	0.000		
1.480	794.400	1.480	0.000		
1.485	781.160	1.485	0.000		
1.490	764.610	1.490	0.000		
1.495	754.680	1.495	0.000		
1.500	751.370	1.500	2.500		
1.505	734.820	1.505	0.000		
1.510	731.510	1.510	0.000		
1.515	724.890	1.515	0.000		
1.520	701.720	1.520	0.000		
1.525	698.410	1.525	0.000		
1.530	691.790	1.530	0.000		
1.535	688.480	1.535	0.000		
1.540	684.400	1.540	0.000		
1.545	684.400	1.545	0.000		
1.550	672.800	1.550	2.500		
1.555	675.700	1.555	0.000		
1.560	669.900	1.560	0.000		
1.565	672.800	1.565	0.000		
1.570	684.400	1.570	2.500		
1.575	684.400	1.580	0.000		
1.580	687.300	1.580	0.000		
1.585	687.300	1.585	0.000		
1.590	693.100	1.590	0.000		
1.595	704.700	1.595	0.000		
1.600	704.700	1.600	0.000		
1.605	719.200	1.605	2.500		
1.610	725.000	1.610	2.500		
1.615	740.880	1.615	0.000		
1.620	752.220	1.620	0.000		
1.625	763.560	1.625	0.000		
1.630	778.680	1.630	0.000		
1.640	786.240	1.635	0.000		
1.640	786.240	1.640	0.000		
1.645	805.140	1.645	0.000		
1.650	816.480	1.650	2.500		
1.655	835.380	1.655	0.000		
1.660	846.720	1.660	0.000		
1.665	865.620	1.665	2.500		
1.670	876.960	1.670	5.000		
1.675	895.860	1.675	0.000		
1.680	910.980	1.680	2.500		
1.685	926.100	1.685	5.000		
1.690	945.000	1.690	2.480		
1.695	961.400	1.695	0.000		
1.700	969.760	1.700	2.480		
1.705	982.300	1.705	0.000		
1.710	990.660	1.710	4.960		
1.715	1003.200	1.715	2.480		
1.720	1011.560	1.720	0.000		
1.725	1024.100	1.725	4.960		
1.730	1028.280	1.730	0.000		
1.735	1036.640	1.735	0.000		
1.740	1036.640	1.740	0.000		
1.745	1045.000	1.745	0.000		
1.750	1045.000	1.750	2.480		
1.755	1036.640	1.755	10.000		
1.760	1032.460	1.760	20.000		
1.765	1024.100	1.765	30.910		
1.770	1007.500	1.775	53.390		
1.775	987.350	1.775	53.390		
1.780	955.110	1.780	109.590		
1.785	926.900	1.785	185.460		
1.790	898.690	1.790	275.380		
1.795	846.300	1.795	359.680		
1.800	789.880	1.800	435.550		
1.805	721.370	1.805	502.990		
1.810	644.800	1.810	542.330		
1.815	544.050	1.815	559.190		
1.825	427.180	1.820	570.430		
1.825	427.180	1.825	587.290		
1.830	346.580	1.830	621.010		
1.835	274.040	1.835	660.350		
1.840	221.650	1.840	702.500		
1.845	177.320	1.845	738.000		
1.850	147.500	1.850	774.900		
1.855	124.490	1.855	799.500		
1.860	102.070	1.860	836.400		
1.865	82.010	1.865	869.200		
1.870	67.260	1.870	893.800		
1.875	59.590	1.875	918.400		
1.880	44.840	1.880	934.800		
1.885	37.170	1.885	959.400		
1.890	32.450	1.890	971.700		
1.895	22.420	1.895	984.000		
1.900	17.110	1.900	996.300		
1.905	14.750	1.905	1012.700		
1.910	12.390	1.910	1025.000		
1.915	9.440	1.915	1025.000		
1.920	4.720	1.920	1019.280		
1.925	0.000	1.925	1027.500		
1.930	0.000	1.930	1019.280		
1.935	0.000	1.935	1011.060		
1.940	0.000	1.940	1006.950		
1.945	0.000	1.945	986.400		
1.950	0.000	1.950	982.290		
1.955	0.000	1.955	965.850		
1.960	0.000	1.960	949.410		
1.965	0.000	1.965	937.080		
1.970	0.000	1.975	920.640		
1.975	2.500	1.975	920.640		
1.980	2.500	1.980	900.090		
1.985	0.000	1.985	887.760		
1.990	0.000	1.990	867.210		
1.995	0.000	1.995	846.660		
2.005	0.000	2.000	837.500		
2.005	0.000	2.005	817.400		
2.010	0.000	2.010	797.300		
2.015	2.500	2.015	783.900		
2.020	0.000	2.020	770.500		
2.025	0.000	2.025	757.100		
2.030	0.000	2.030	747.050		
2.035	0.000	2.035	733.650		
2.040	0.000	2.040	730.300		
2.045	2.500	2.045	716.900		
2.050	0.000	2.050	706.850		
2.055	2.500	2.055	700.150		
2.060	0.000	2.060	696.800		
2.065	0.000	2.065	690.100		
2.070	0.000	2.070	683.400		
2.075	0.000	2.075	679.440		
2.080	0.000	2.080	673.480		
2.085	0.000	2.085	670.500		
2.090	2.490	2.090	670.500		
2.095	4.980	2.095	676.460		
2.100	2.490	2.100	676.460		
2.105	0.000	2.105	673.480		
2.110	0.000	2.110	682.420		
2.115	2.490	2.115	691.360		
2.120	0.000	2.120	697.320		
2.125	2.490	2.125	703.280		
2.130	7.500	2.130	709.240		
2.135	4.980	2.135	721.160		
2.140	7.500	2.140	730.100		
2.145	0.000	2.145	745.000		
2.150	2.490	2.150	752.720		
2.155	4.860	2.155	768.240		
2.160	4.860	2.160	783.760		
2.165	7.380	2.165	795.400		
2.170	7.380	2.175	810.920		
2.175	4.860	2.175	810.920		
2.180	7.380	2.180	826.440		
2.190	0.000	2.185	841.960		
2.190	0.000	2.190	865.240		
2.195	4.860	2.195	884.640		
2.200	4.860	2.200	900.160		
2.205	2.340	2.205	911.800		
2.210	9.900	2.210	931.200		
2.215	22.500	2.215	946.720		
2.220	27.360	2.220	962.240		
2.225	32.400	2.225	970.000		
2.230	45.000	2.230	975.260		
2.235	63.800	2.235	987.350		
2.240	103.400	2.240	991.380		
2.245	184.800	2.245	999.440		
2.250	253.000	2.250	1003.470		
2.255	325.600	2.255	1007.500		
2.260	391.600	2.260	1003.470		
2.265	442.200	2.265	991.380		
2.270	473.000	2.270	991.380		
2.275	473.000	2.275	995.410		
2.280	479.600	2.280	987.350		
2.285	468.600	2.285	979.290		
2.290	477.400	2.290	971.230		
2.295	495.000	2.295	959.140		
2.300	521.400	2.300	951.080		
2.305	550.000	2.305	932.500		
2.310	581.350	2.310	913.850		
2.315	608.300	2.315	884.010		
2.320	646.800	2.320	850.440		
2.325	689.150	2.325	816.870		
2.330	727.650	2.330	757.190		
2.335	773.850	2.335	693.780		
2.340	808.500	2.340	634.100		
2.345	839.300	2.345	581.880		
2.350	866.250	2.350	511.010		
2.355	897.050	2.355	436.410		
2.360	916.300	2.360	354.350		
2.370	935.550	2.370	283.480		
2.370	935.550	2.370	283.480		
2.375	954.800	2.375	227.530		
2.380	954.800	2.380	175.310		
2.385	962.500	2.385	140.000		
2.390	957.500	2.390	109.760		
2.395	949.840	2.395	84.560		
2.400	946.010	2.400	67.200		
2.405	934.520	2.405	57.120		
2.410	919.200	2.410	49.840		
2.415	903.880	2.415	34.720		
2.420	880.900	2.420	34.720		
2.425	861.750	2.425	34.720		
2.430	838.770	2.430	36.960		
2.435	831.110	2.435	27.440		
2.440	811.960	2.440	22.400		
2.445	804.300	2.445	14.560		
2.450	792.810	2.450	19.600		
2.455	781.320	2.455	7.280		
2.460	769.830	2.460	7.500		
2.465	762.500	2.465	2.490		
2.470	750.300	2.470	0.000		
2.475	738.100	2.475	0.000		
2.480	728.950	2.480	0.000		
2.485	713.700	2.485	0.000		
2.490	710.650	2.490	0.000		
2.495	701.500	2.495	0.000		
2.500	692.350	2.500	0.000		
2.505	689.300	2.505	2.490		
2.510	677.100	2.510	0.000		
2.515	671.000	2.515	0.000		
2.520	677.100	2.520	4.980		
2.525	677.100	2.525	0.000		
2.530	667.950	2.530	0.000		
2.535	667.950	2.535	0.000		
2.540	667.440	2.540	0.000		
2.545	677.160	2.545	0.000		
2.555	677.160	2.550	0.000		
2.555	677.160	2.555	0.000		
2.560	686.880	2.560	0.000		
2.565	693.360	2.570	0.000		
2.570	703.080	2.570	0.000		
2.575	709.560	2.575	0.000		
2.580	712.800	2.580	0.000		
2.585	732.240	2.585	0.000		
2.590	738.720	2.590	0.000		
2.595	758.160	2.595	0.000		
2.600	764.640	2.600	2.500		
2.605	774.360	2.605	0.000		
2.610	790.560	2.610	0.000		
2.615	810.000	2.615	0.000		
2.620	818.070	2.620	2.450		
2.625	834.350	2.625	2.450		
2.630	846.560	2.630	4.970		
2.635	866.910	2.635	7.490		
2.640	883.190	2.640	2.450		
2.645	899.470	2.645	7.490		
2.650	911.680	2.650	2.450		
2.655	923.890	2.655	9.940		
2.660	944.240	2.660	9.940		
2.665	952.380	2.665	4.970		
2.670	964.590	2.670	14.980		
2.675	980.870	2.675	14.980		
2.680	993.080	2.680	17.500		
2.685	1005.290	2.685	12.460		
2.690	1017.500	2.690	12.350		
2.695	1026.550	2.695	17.100		
2.700	1034.930	2.700	12.350		
2.705	1039.120	2.705	12.350		
2.710	1039.120	2.710	14.250		
2.715	1047.500	2.715	12.350		
2.720	1047.500	2.720	12.350		
2.725	1047.500	2.725	9.500		
2.735	1039.120	2.730	9.500		
2.735	1039.120	2.735	19.950		
2.740	1034.930	2.740	29.450		
2.745	1026.550	2.745	41.800		
2.750	1001.410	2.750	59.850		
2.755	984.650	2.755	124.450		
2.760	946.940	2.765	237.500		
2.765	896.660	2.765	237.500		
2.770	833.810	2.770	336.420		
2.775	780.000	2.775	434.700		
2.780	702.000	2.780	517.860		
2.785	614.640	2.785	604.800		
2.790	514.800	2.790	650.160		
2.795	427.440	2.795	665.280		
2.800	343.200	2.800	661.500		
2.805	268.320	2.805	657.720		
2.810	218.400	2.810	676.620		
2.815	174.720	2.815	710.640		
2.820	143.520	2.820	756.000		
2.825	115.440	2.825	801.360		
2.830	96.720	2.830	846.720		
2.835	78.000	2.835	892.080		
2.840	62.400	2.840	945.000		
2.845	49.920	2.845	991.200		
2.850	37.500	2.850	1038.400		
2.855	30.000	2.855	1066.720		
2.860	19.950	2.860	1090.320		
2.865	17.400	2.865	1113.920		
2.870	15.000	2.870	1142.240		
2.875	4.950	2.875	1151.680		
2.880	9.900	2.880	1170.560		
2.885	4.950	2.885	1175.280		
2.890	0.000	2.890	1175.280		
2.895	0.000	2.895	1180.000		
2.900	0.000	2.900	1170.560		
2.905	0.000	2.905	1156.400		
2.910	0.000	2.910	1146.960		
2.920	0.000	2.915	1128.080		
2.920	0.000	2.920	1115.000		
2.925	0.000	2.925	1092.700		
2.930	0.000	2.930	1061.480		
2.935	0.000	2.935	1043.640		
2.940	0.000	2.940	1016.880		
2.945	0.000	2.945	990.120		
2.950	0.000	2.950	963.360		
2.955	0.000	2.955	945.520		
2.960	0.000	2.965	918.760		
2.965	0.000	2.965	918.760		
2.970	0.000	2.970	896.460		
2.975	0.000	2.975	874.160		
2.980	2.500	2.980	851.860		
2.985	0.000	2.985	834.020		
2.990	0.000	2.990	811.720		
2.995	0.000	2.995	793.880		
3.000	0.000	3.000	777.500		
3.005	0.000	3.005	761.950		
3.010	2.500	3.010	749.510		
3.015	0.000	3.015	727.740		
3.020	0.000	3.020	718.410		
3.025	5.000	3.025	709.080		
3.030	0.000	3.030	699.750		
3.035	0.000	3.035	693.530		
3.040	0.000	3.040	687.310		
3.045	0.000	3.045	677.980		
3.050	0.000	3.050	674.870		
3.055	0.000	3.055	674.870		
3.060	0.000	3.060	671.760		
3.065	0.000	3.065	671.760		
3.070	2.500	3.070	671.760		
3.075	0.000	3.075	665.700		
3.080	4.970	3.080	672.040		
3.085	9.940	3.085	672.040		
3.090	4.970	3.090	678.380		
3.100	7.490	3.095	684.720		
3.100	7.490	3.100	684.720		
3.105	4.970	3.105	697.400		
3.110	7.490	3.110	703.740		
3.115	4.970	3.115	710.080		
3.120	2.450	3.120	719.590		
3.125	2.450	3.125	732.270		
3.130	9.940	3.130	744.950		
3.135	9.940	3.135	754.460		
3.140	7.490	3.140	776.650		
3.145	17.500	3.145	792.500		
3.150	14.980	3.150	803.880		
3.155	14.980	3.160	824.180		
3.160	9.000	3.160	824.180		
3.165	15.000	3.165	844.480		
3.170	16.500	3.170	860.720		
3.175	15.000	3.175	876.960		
3.180	15.000	3.180	897.260		
3.185	12.000	3.185	909.440		
3.190	19.500	3.190	929.740		
3.195	30.000	3.195	945.980		
3.200	34.500	3.200	954.100		
3.205	49.500	3.205	974.400		
3.210	69.000	3.210	982.520		
3.215	112.500	3.215	994.700		
3.220	187.500	3.220	998.760		
3.225	264.000	3.225	1015.000		
3.230	375.000	3.230	1016.750		
3.235	444.460	3.235	1029.200		
3.240	482.020	3.240	1029.200		
3.245	491.410	3.245	1029.200		
3.250	491.410	3.250	1029.200		
3.255	485.150	3.255	1037.500		
3.260	497.670	3.260	1025.050		
3.265	516.450	3.265	1016.750		
3.270	541.490	3.270	1008.450		
3.275	579.050	3.275	991.850		
3.285	607.220	3.280	966.950		
3.285	607.220	3.285	942.050		
3.290	644.780	3.290	913.000		
3.295	672.950	3.295	867.350		
3.300	716.770	3.300	825.850		
3.305	751.200	3.305	772.500		
3.310	782.500	3.310	695.250		
3.315	803.600	3.315	618.000		
3.320	846.720	3.320	540.750		
3.325	885.920	3.325	466.590		
3.330	909.440	3.330	386.250		
3.335	936.880	3.335	312.090		
3.340	948.640	3.340	247.200		
3.345	964.320	3.345	203.940		
3.350	972.160	3.350	160.680		
3.355	980.000	3.360	129.780		
3.360	976.080	3.360	129.780		
3.365	976.080	3.365	92.700		
3.370	968.240	3.370	77.250		
3.375	952.560	3.375	58.710		
3.380	944.720	3.380	49.440		
3.385	921.200	3.385	42.500		
3.390	907.500	3.390	32.470		
3.395	889.350	3.395	37.400		
3.400	867.570	3.400	32.470		
3.405	849.420	3.405	24.990		
3.410	831.270	3.410	22.440		
3.415	816.750	3.415	12.410		
3.420	794.970	3.420	7.480		
3.425	780.450	3.425	12.410		
3.430	769.560	3.430	4.930		
3.435	751.410	3.435	0.000		
